##TITLE=Soddyite
##JCAMP-DX=None
##ORIGIN=RRUFF
##OWNER=Michael Scott
##DATE=05-23-22
##TIME=17:29:57
##SOURCE REFERENCE=Highlights in Mineralogical Crystallography 2015 1-30
##SPECTROMETER/DATA SYSTEM=Unknown
##XUNITS=1/CM
##YUNITS=ARBITRARY UNITS
##XFACTOR=1
##YFACTOR=1
##DELTAX=0.482117
##FIRSTX=107.9252
##LASTX=1285.736
##FIRSTY=831.4121
##MAXX=1285.736
##MINX=107.9252
##MAXY=3246.546
##MINY=61.52692
##NPOINTS=2444
##XYDATA=(XY..XY)
 107.925,   831.412
 108.407,   833.159
 108.889,   839.960
 109.371,   848.920
 109.854,   855.582
 110.336,   860.673
 110.818,   862.474
 111.300,   859.369
 111.782,   851.669
 112.264,   842.226
 112.746,   830.772
 113.228,   818.776
 113.711,   807.404
 114.193,   796.674
 114.675,   787.205
 115.157,   780.088
 115.639,   775.737
 116.121,   772.693
 116.603,   770.874
 117.085,   769.746
 117.567,   768.726
 118.050,   767.447
 118.532,   766.154
 119.014,   766.053
 119.496,   767.972
 119.978,   770.362
 120.460,   773.516
 120.942,   776.928
 121.424,   779.793
 121.907,   781.459
 122.389,   781.840
 122.871,   782.192
 123.353,   782.537
 123.835,   782.845
 124.317,   783.136
 124.799,   783.393
 125.281,   783.587
 125.763,   783.818
 126.246,   784.190
 126.728,   783.374
 127.210,   780.875
 127.692,   777.385
 128.174,   773.279
 128.656,   768.469
 129.138,   763.888
 129.620,   761.104
 130.102,   759.890
 130.585,   758.484
 131.067,   756.145
 131.549,   753.047
 132.031,   749.725
 132.513,   745.914
 132.995,   742.315
 133.477,   739.555
 133.959,   737.641
 134.442,   735.954
 134.924,   734.137
 135.406,   732.261
 135.888,   729.732
 136.370,   725.178
 136.852,   720.758
 137.334,   717.604
 137.816,   716.005
 138.298,   715.772
 138.781,   716.470
 139.263,   717.644
 139.745,   720.934
 140.227,   726.235
 140.709,   733.394
 141.191,   742.441
 141.673,   753.340
 142.155,   765.896
 142.638,   779.303
 143.120,   794.405
 143.602,   809.458
 144.084,   823.996
 144.566,   838.395
 145.048,   853.214
 145.530,   868.725
 146.012,   884.948
 146.494,   902.441
 146.977,   922.159
 147.459,   941.823
 147.941,   960.072
 148.423,   977.240
 148.905,   994.950
 149.387,   1014.721
 149.869,   1036.114
 150.351,   1056.630
 150.834,   1075.209
 151.316,   1093.511
 151.798,   1113.223
 152.280,   1134.650
 152.762,   1156.394
 153.244,   1177.339
 153.726,   1197.908
 154.208,   1219.251
 154.690,   1242.256
 155.173,   1266.044
 155.655,   1288.635
 156.137,   1309.054
 156.619,   1329.886
 157.101,   1352.957
 157.583,   1377.403
 158.065,   1401.910
 158.547,   1426.022
 159.030,   1449.625
 159.512,   1471.175
 159.994,   1490.563
 160.476,   1507.749
 160.958,   1523.310
 161.440,   1536.791
 161.922,   1546.988
 162.404,   1552.449
 162.887,   1552.486
 163.369,   1551.712
 163.851,   1553.129
 164.333,   1551.337
 164.815,   1543.734
 165.297,   1530.257
 165.779,   1512.554
 166.261,   1492.055
 166.743,   1467.421
 167.226,   1443.961
 167.708,   1423.625
 168.190,   1402.909
 168.672,   1379.240
 169.154,   1352.074
 169.636,   1323.149
 170.118,   1294.659
 170.600,   1266.488
 171.083,   1239.318
 171.565,   1212.678
 172.047,   1187.335
 172.529,   1164.164
 173.011,   1143.423
 173.493,   1124.833
 173.975,   1108.259
 174.457,   1093.503
 174.939,   1080.130
 175.422,   1067.974
 175.904,   1057.042
 176.386,   1047.377
 176.868,   1038.747
 177.350,   1031.776
 177.832,   1027.361
 178.314,   1025.606
 178.796,   1024.286
 179.278,   1021.596
 179.761,   1017.833
 180.243,   1015.628
 180.725,   1016.176
 181.207,   1018.289
 181.689,   1021.061
 182.171,   1024.469
 182.653,   1027.921
 183.135,   1030.513
 183.618,   1031.997
 184.100,   1034.614
 184.582,   1040.835
 185.064,   1047.180
 185.546,   1051.471
 186.028,   1053.263
 186.510,   1053.811
 186.992,   1054.935
 187.474,   1057.194
 187.957,   1058.481
 188.439,   1058.835
 188.921,   1058.109
 189.403,   1055.972
 189.885,   1052.355
 190.367,   1047.770
 190.849,   1043.208
 191.331,   1039.730
 191.814,   1034.374
 192.296,   1026.482
 192.778,   1017.172
 193.260,   1007.013
 193.742,   996.313
 194.224,   985.602
 194.706,   976.179
 195.188,   969.651
 195.670,   962.602
 196.153,   954.418
 196.635,   945.876
 197.117,   937.803
 197.599,   930.548
 198.081,   924.053
 198.563,   918.223
 199.045,   913.194
 199.527,   908.569
 200.010,   903.889
 200.492,   899.636
 200.974,   896.734
 201.456,   895.749
 201.938,   896.039
 202.420,   895.678
 202.902,   893.974
 203.384,   892.911
 203.866,   893.292
 204.349,   894.870
 204.831,   896.909
 205.313,   898.954
 205.795,   901.509
 206.277,   905.459
 206.759,   911.043
 207.241,   917.325
 207.723,   923.747
 208.205,   930.396
 208.688,   937.669
 209.170,   945.842
 209.652,   954.722
 210.134,   963.650
 210.616,   972.283
 211.098,   981.771
 211.580,   993.288
 212.062,   1006.810
 212.544,   1020.790
 213.027,   1034.477
 213.509,   1048.442
 213.991,   1063.687
 214.473,   1080.597
 214.955,   1097.016
 215.437,   1109.896
 215.919,   1118.695
 216.401,   1127.670
 216.884,   1140.455
 217.366,   1152.484
 217.848,   1160.981
 218.330,   1165.252
 218.812,   1165.582
 219.294,   1162.440
 219.776,   1156.117
 220.258,   1145.040
 220.740,   1127.128
 221.223,   1105.766
 221.705,   1082.762
 222.187,   1058.658
 222.669,   1033.341
 223.151,   1006.276
 223.633,   975.778
 224.115,   947.120
 224.597,   921.554
 225.079,   897.291
 225.562,   873.053
 226.044,   848.499
 226.526,   824.235
 227.008,   801.169
 227.490,   779.106
 227.972,   759.114
 228.454,   741.425
 228.936,   725.355
 229.419,   710.928
 229.901,   698.029
 230.383,   685.961
 230.865,   673.581
 231.347,   659.575
 231.829,   647.448
 232.311,   638.081
 232.793,   629.909
 233.275,   621.463
 233.758,   612.425
 234.240,   603.582
 234.722,   596.380
 235.204,   591.630
 235.686,   587.303
 236.168,   583.484
 236.650,   580.021
 237.132,   576.666
 237.615,   573.391
 238.097,   570.594
 238.579,   569.019
 239.061,   569.662
 239.543,   569.194
 240.025,   566.708
 240.507,   563.461
 240.989,   560.702
 241.471,   558.720
 241.954,   557.046
 242.436,   555.046
 242.918,   552.630
 243.400,   550.305
 243.882,   548.202
 244.364,   546.184
 244.846,   544.221
 245.328,   542.320
 245.811,   540.148
 246.293,   537.200
 246.775,   533.448
 247.257,   529.688
 247.739,   526.159
 248.221,   522.612
 248.703,   518.662
 249.185,   514.201
 249.667,   509.660
 250.150,   505.264
 250.632,   501.026
 251.114,   497.511
 251.596,   495.163
 252.078,   493.456
 252.560,   491.588
 253.042,   489.406
 253.524,   487.595
 254.006,   487.009
 254.489,   487.322
 254.971,   487.753
 255.453,   488.642
 255.935,   489.330
 256.417,   488.975
 256.899,   487.560
 257.381,   485.079
 257.863,   481.395
 258.346,   476.630
 258.828,   470.615
 259.310,   463.071
 259.792,   454.433
 260.274,   444.957
 260.756,   434.311
 261.238,   424.271
 261.720,   415.815
 262.202,   408.566
 262.685,   402.158
 263.167,   396.406
 263.649,   391.557
 264.131,   388.053
 264.613,   386.072
 265.095,   384.667
 265.577,   383.512
 266.059,   382.707
 266.542,   382.305
 267.024,   382.205
 267.506,   382.835
 267.988,   384.874
 268.470,   388.494
 268.952,   392.744
 269.434,   398.010
 269.916,   403.439
 270.399,   408.260
 270.881,   412.250
 271.363,   416.052
 271.845,   420.453
 272.327,   425.553
 272.809,   430.816
 273.291,   436.250
 273.773,   441.730
 274.255,   447.043
 274.738,   452.212
 275.220,   457.695
 275.702,   464.288
 276.184,   472.205
 276.666,   479.666
 277.148,   485.421
 277.630,   491.371
 278.112,   498.343
 278.594,   506.445
 279.077,   515.314
 279.559,   524.611
 280.041,   534.345
 280.523,   544.644
 281.005,   555.668
 281.487,   567.162
 281.969,   579.144
 282.451,   591.515
 282.933,   604.131
 283.416,   616.759
 283.898,   629.391
 284.380,   642.459
 284.862,   656.365
 285.344,   670.333
 285.826,   684.300
 286.308,   698.114
 286.791,   711.618
 287.273,   724.815
 287.755,   737.601
 288.237,   748.697
 288.719,   757.536
 289.201,   765.118
 289.683,   772.961
 290.165,   779.544
 290.647,   782.538
 291.130,   780.425
 291.612,   774.008
 292.094,   766.340
 292.576,   756.376
 293.058,   746.644
 293.540,   738.317
 294.022,   730.216
 294.504,   720.729
 294.986,   709.065
 295.469,   696.522
 295.951,   686.234
 296.433,   678.860
 296.915,   672.849
 297.397,   667.421
 297.879,   663.335
 298.361,   661.538
 298.843,   662.229
 299.325,   664.453
 299.808,   666.493
 300.290,   667.426
 300.772,   670.422
 301.254,   676.502
 301.736,   683.685
 302.218,   690.819
 302.700,   697.684
 303.182,   704.825
 303.665,   712.928
 304.147,   722.058
 304.629,   731.877
 305.111,   742.746
 305.593,   753.999
 306.075,   765.901
 306.557,   778.036
 307.039,   789.432
 307.522,   799.434
 308.004,   808.192
 308.486,   813.953
 308.968,   817.376
 309.450,   816.936
 309.932,   811.478
 310.414,   801.699
 310.896,   789.144
 311.378,   774.891
 311.861,   756.524
 312.343,   738.709
 312.825,   712.190
 313.307,   684.573
 313.789,   655.344
 314.271,   626.044
 314.753,   598.264
 315.235,   572.963
 315.717,   549.580
 316.200,   526.887
 316.682,   504.650
 317.164,   483.457
 317.646,   462.789
 318.128,   443.331
 318.610,   425.845
 319.092,   410.544
 319.574,   397.054
 320.057,   384.928
 320.539,   374.745
 321.021,   364.683
 321.503,   353.647
 321.985,   343.460
 322.467,   335.541
 322.949,   329.841
 323.431,   325.041
 323.913,   319.546
 324.396,   313.044
 324.878,   307.495
 325.360,   303.796
 325.842,   300.207
 326.324,   295.739
 326.806,   290.741
 327.288,   286.246
 327.770,   283.096
 328.252,   281.226
 328.735,   279.344
 329.217,   277.424
 329.699,   275.514
 330.181,   273.695
 330.663,   271.879
 331.145,   269.827
 331.627,   267.333
 332.109,   264.777
 332.592,   263.452
 333.074,   264.284
 333.556,   264.799
 334.038,   264.441
 334.520,   263.688
 335.002,   262.970
 335.484,   262.429
 335.966,   261.651
 336.449,   261.258
 336.931,   260.253
 337.413,   259.459
 337.895,   258.793
 338.377,   258.434
 338.859,   258.649
 339.341,   259.377
 339.823,   260.183
 340.305,   260.605
 340.788,   260.593
 341.270,   260.693
 341.752,   261.265
 342.234,   261.580
 342.716,   261.203
 343.198,   260.335
 343.680,   259.464
 344.162,   258.870
 344.644,   258.545
 345.127,   258.537
 345.609,   259.317
 346.091,   259.620
 346.573,   258.757
 347.055,   257.354
 347.537,   256.227
 348.019,   255.738
 348.501,   255.526
 348.984,   254.825
 349.466,   253.383
 349.948,   252.319
 350.430,   252.201
 350.912,   252.404
 351.394,   252.655
 351.876,   252.886
 352.358,   252.765
 352.841,   251.619
 353.323,   249.393
 353.805,   248.052
 354.287,   248.588
 354.769,   249.335
 355.251,   249.411
 355.733,   248.813
 356.215,   247.709
 356.697,   245.969
 357.180,   243.769
 357.662,   241.777
 358.144,   240.003
 358.626,   238.460
 359.108,   237.345
 359.590,   236.424
 360.072,   235.313
 360.554,   233.873
 361.036,   232.192
 361.519,   230.284
 362.001,   228.114
 362.483,   226.077
 362.965,   224.515
 363.447,   223.060
 363.929,   221.250
 364.411,   218.970
 364.893,   216.633
 365.375,   214.198
 365.858,   211.839
 366.340,   210.673
 366.822,   211.419
 367.304,   212.761
 367.786,   213.712
 368.268,   214.256
 368.750,   213.571
 369.233,   209.849
 369.715,   205.115
 370.197,   203.192
 370.679,   204.744
 371.161,   206.974
 371.643,   207.938
 372.125,   207.857
 372.607,   207.461
 373.089,   206.780
 373.572,   205.860
 374.054,   204.443
 374.536,   202.680
 375.018,   201.557
 375.500,   201.863
 375.982,   202.832
 376.464,   202.649
 376.946,   201.112
 377.428,   199.118
 377.911,   195.939
 378.393,   192.750
 378.875,   192.155
 379.357,   195.100
 379.839,   198.746
 380.321,   199.273
 380.803,   196.006
 381.285,   193.421
 381.767,   192.333
 382.250,   191.683
 382.732,   190.852
 383.214,   189.714
 383.696,   187.937
 384.178,   184.937
 384.660,   180.951
 385.142,   179.341
 385.624,   182.001
 386.106,   184.438
 386.589,   184.888
 387.071,   184.173
 387.553,   183.784
 388.035,   184.381
 388.517,   185.503
 388.999,   186.145
 389.481,   186.206
 389.964,   185.857
 390.446,   184.656
 390.928,   183.345
 391.410,   182.499
 391.892,   182.208
 392.374,   182.236
 392.856,   182.351
 393.338,   182.548
 393.820,   182.889
 394.303,   183.707
 394.785,   184.314
 395.267,   184.586
 395.749,   184.463
 396.231,   183.782
 396.713,   182.387
 397.195,   180.582
 397.677,   179.422
 398.159,   179.233
 398.642,   179.197
 399.124,   179.277
 399.606,   179.401
 400.088,   179.577
 400.570,   179.783
 401.052,   179.855
 401.534,   179.533
 402.016,   178.731
 402.498,   178.039
 402.981,   177.292
 403.463,   176.863
 403.945,   177.074
 404.427,   177.747
 404.909,   178.444
 405.391,   178.945
 405.873,   179.246
 406.355,   179.314
 406.838,   179.072
 407.320,   178.779
 407.802,   178.553
 408.284,   178.322
 408.766,   177.934
 409.248,   177.293
 409.730,   176.811
 410.212,   177.046
 410.695,   177.944
 411.177,   178.643
 411.659,   178.965
 412.141,   179.023
 412.623,   178.804
 413.105,   178.366
 413.587,   178.167
 414.069,   178.540
 414.551,   179.216
 415.034,   179.832
 415.516,   180.380
 415.998,   180.720
 416.480,   180.710
 416.962,   180.413
 417.444,   180.063
 417.926,   179.435
 418.408,   179.062
 418.890,   179.427
 419.373,   180.286
 419.855,   180.982
 420.337,   181.262
 420.819,   181.407
 421.301,   181.925
 421.783,   182.964
 422.265,   183.722
 422.747,   184.208
 423.229,   184.315
 423.712,   183.588
 424.194,   182.198
 424.676,   181.254
 425.158,   181.706
 425.640,   183.459
 426.122,   184.762
 426.604,   185.178
 427.087,   185.720
 427.569,   186.867
 428.051,   188.223
 428.533,   189.156
 429.015,   189.436
 429.497,   189.457
 429.979,   189.943
 430.461,   191.248
 430.943,   192.251
 431.425,   192.917
 431.908,   193.375
 432.390,   193.514
 432.872,   193.483
 433.354,   193.651
 433.836,   194.301
 434.318,   195.402
 434.800,   196.756
 435.282,   198.440
 435.765,   200.280
 436.247,   202.279
 436.729,   204.363
 437.211,   206.436
 437.693,   208.468
 438.175,   210.514
 438.657,   212.481
 439.139,   214.314
 439.622,   216.977
 440.104,   221.368
 440.586,   225.784
 441.068,   228.974
 441.550,   231.216
 442.032,   233.619
 442.514,   237.041
 442.996,   240.868
 443.478,   243.752
 443.961,   245.497
 444.443,   247.880
 444.925,   252.283
 445.407,   257.633
 445.889,   261.889
 446.371,   264.541
 446.853,   267.341
 447.335,   271.709
 447.817,   276.861
 448.300,   280.861
 448.782,   283.130
 449.264,   285.170
 449.746,   288.661
 450.228,   293.718
 450.710,   298.457
 451.192,   302.218
 451.674,   306.171
 452.156,   311.439
 452.639,   317.566
 453.121,   323.114
 453.603,   327.351
 454.085,   330.562
 454.567,   333.524
 455.049,   335.873
 455.531,   338.478
 456.014,   341.823
 456.496,   345.111
 456.978,   348.088
 457.460,   350.489
 457.942,   351.699
 458.424,   351.012
 458.906,   348.404
 459.388,   345.706
 459.870,   343.835
 460.353,   340.733
 460.835,   335.686
 461.317,   329.261
 461.799,   322.033
 462.281,   314.175
 462.763,   306.036
 463.245,   298.204
 463.727,   290.795
 464.209,   282.979
 464.692,   274.343
 465.174,   265.542
 465.656,   256.527
 466.138,   247.606
 466.620,   239.641
 467.102,   233.583
 467.584,   228.569
 468.066,   222.812
 468.548,   216.146
 469.031,   209.770
 469.513,   204.114
 469.995,   199.165
 470.477,   194.931
 470.959,   191.496
 471.441,   188.466
 471.923,   185.910
 472.405,   183.562
 472.887,   180.839
 473.370,   177.608
 473.852,   174.491
 474.334,   172.036
 474.816,   170.281
 475.298,   168.760
 475.780,   167.758
 476.262,   166.693
 476.745,   165.242
 477.227,   163.544
 477.709,   161.849
 478.191,   160.239
 478.673,   158.751
 479.155,   157.456
 479.637,   156.407
 480.119,   155.432
 480.601,   154.541
 481.084,   153.698
 481.566,   152.893
 482.048,   152.123
 482.530,   151.394
 483.012,   150.725
 483.494,   150.078
 483.976,   149.285
 484.458,   148.087
 484.940,   147.289
 485.423,   147.685
 485.905,   148.078
 486.387,   147.337
 486.869,   145.404
 487.351,   143.414
 487.833,   142.313
 488.315,   141.973
 488.797,   141.791
 489.279,   141.844
 489.762,   141.818
 490.244,   141.619
 490.726,   141.191
 491.208,   140.305
 491.690,   138.583
 492.172,   137.078
 492.654,   136.773
 493.136,   137.304
 493.619,   137.708
 494.101,   137.793
 494.583,   137.440
 495.065,   136.284
 495.547,   134.201
 496.029,   132.977
 496.511,   133.444
 496.993,   134.055
 497.476,   133.919
 497.958,   133.200
 498.440,   132.317
 498.922,   131.455
 499.404,   130.758
 499.886,   130.601
 500.368,   131.566
 500.850,   131.993
 501.332,   131.558
 501.815,   130.927
 502.297,   130.539
 502.779,   130.337
 503.261,   129.946
 503.743,   129.021
 504.225,   127.804
 504.707,   127.333
 505.189,   128.026
 505.671,   128.504
 506.154,   128.047
 506.636,   127.484
 507.118,   127.704
 507.600,   128.746
 508.082,   129.420
 508.564,   128.280
 509.046,   126.105
 509.528,   125.405
 510.010,   126.635
 510.493,   127.952
 510.975,   128.205
 511.457,   127.737
 511.939,   127.412
 512.421,   127.388
 512.903,   127.297
 513.385,   126.765
 513.867,   126.098
 514.350,   125.967
 514.832,   126.517
 515.314,   127.037
 515.796,   126.714
 516.278,   125.450
 516.760,   124.857
 517.242,   125.461
 517.724,   126.027
 518.207,   126.053
 518.689,   125.812
 519.171,   125.785
 519.653,   126.127
 520.135,   126.511
 520.617,   126.366
 521.099,   125.474
 521.581,   124.939
 522.063,   125.237
 522.545,   125.427
 523.028,   125.094
 523.510,   124.419
 523.992,   123.730
 524.474,   123.117
 524.956,   122.705
 525.438,   122.786
 525.920,   123.371
 526.403,   123.777
 526.885,   123.748
 527.367,   123.618
 527.849,   123.747
 528.331,   124.087
 528.813,   124.344
 529.295,   124.466
 529.777,   124.442
 530.259,   124.109
 530.741,   123.570
 531.224,   123.364
 531.706,   123.814
 532.188,   124.458
 532.670,   124.356
 533.152,   122.977
 533.634,   122.055
 534.116,   121.995
 534.598,   122.085
 535.081,   121.590
 535.563,   120.814
 536.045,   120.863
 536.527,   122.535
 537.009,   125.011
 537.491,   125.603
 537.973,   123.028
 538.455,   121.402
 538.938,   122.078
 539.420,   123.081
 539.902,   123.222
 540.384,   122.540
 540.866,   121.746
 541.348,   121.309
 541.830,   121.063
 542.312,   120.506
 542.794,   119.554
 543.277,   119.098
 543.759,   119.878
 544.241,   121.018
 544.723,   121.073
 545.205,   119.863
 545.687,   119.195
 546.169,   120.449
 546.651,   122.080
 547.134,   122.207
 547.616,   120.908
 548.098,   119.550
 548.580,   118.915
 549.062,   118.894
 549.544,   119.128
 550.026,   120.379
 550.508,   120.832
 550.990,   119.563
 551.472,   118.185
 551.955,   118.100
 552.437,   119.144
 552.919,   120.141
 553.401,   120.189
 553.883,   119.538
 554.365,   119.247
 554.847,   119.599
 555.330,   119.598
 555.812,   118.431
 556.294,   117.208
 556.776,   116.814
 557.258,   117.262
 557.740,   117.781
 558.222,   117.969
 558.704,   117.925
 559.186,   117.663
 559.668,   117.183
 560.151,   117.184
 560.633,   118.267
 561.115,   119.785
 561.597,   120.246
 562.079,   119.358
 562.561,   118.579
 563.043,   118.070
 563.525,   117.852
 564.008,   117.929
 564.490,   118.311
 564.972,   119.142
 565.454,   120.587
 565.936,   122.300
 566.418,   123.047
 566.900,   122.108
 567.382,   121.558
 567.865,   121.705
 568.347,   122.098
 568.829,   122.517
 569.311,   122.931
 569.793,   123.370
 570.275,   123.910
 570.757,   124.428
 571.239,   124.413
 571.721,   123.752
 572.204,   123.989
 572.686,   126.160
 573.168,   128.838
 573.650,   130.214
 574.132,   130.324
 574.614,   130.715
 575.096,   132.173
 575.578,   133.785
 576.061,   134.587
 576.543,   134.823
 577.025,   135.535
 577.507,   137.254
 577.989,   139.272
 578.471,   140.171
 578.953,   139.112
 579.435,   139.089
 579.917,   140.962
 580.399,   142.879
 580.882,   143.880
 581.364,   144.270
 581.846,   144.764
 582.328,   145.706
 582.810,   146.826
 583.292,   147.552
 583.774,   147.812
 584.256,   148.744
 584.739,   150.742
 585.221,   153.126
 585.703,   155.671
 586.185,   158.220
 586.667,   160.305
 587.149,   161.359
 587.631,   162.548
 588.114,   164.959
 588.596,   168.131
 589.078,   171.066
 589.560,   173.518
 590.042,   175.542
 590.524,   177.306
 591.006,   178.858
 591.488,   178.844
 591.970,   176.129
 592.452,   173.429
 592.935,   172.111
 593.417,   170.807
 593.899,   167.662
 594.381,   162.422
 594.863,   156.641
 595.345,   151.810
 595.827,   147.892
 596.309,   144.365
 596.792,   141.328
 597.274,   138.431
 597.756,   135.637
 598.238,   132.837
 598.720,   129.776
 599.202,   126.354
 599.684,   123.374
 600.166,   121.554
 600.649,   120.255
 601.131,   118.348
 601.613,   115.880
 602.095,   114.064
 602.577,   113.725
 603.059,   114.297
 603.541,   114.216
 604.023,   113.050
 604.505,   111.894
 604.987,   110.409
 605.470,   109.228
 605.952,   108.962
 606.434,   109.343
 606.916,   109.676
 607.398,   109.582
 607.880,   109.188
 608.362,   108.631
 608.845,   107.840
 609.327,   107.502
 609.809,   108.059
 610.291,   108.665
 610.773,   108.780
 611.255,   108.456
 611.737,   107.794
 612.219,   106.435
 612.701,   105.223
 613.183,   105.013
 613.666,   105.361
 614.148,   105.216
 614.630,   104.324
 615.112,   103.318
 615.594,   102.811
 616.076,   102.804
 616.558,   103.051
 617.040,   104.146
 617.523,   104.748
 618.005,   104.287
 618.487,   103.447
 618.969,   102.866
 619.451,   102.650
 619.933,   102.544
 620.415,   102.335
 620.897,   102.065
 621.380,   101.892
 621.862,   101.827
 622.344,   101.823
 622.826,   101.958
 623.308,   102.062
 623.790,   101.841
 624.272,   101.265
 624.754,   100.900
 625.236,   101.126
 625.719,   101.424
 626.201,   101.299
 626.683,   100.882
 627.165,   100.548
 627.647,   100.451
 628.129,   100.615
 628.611,   101.197
 629.093,   102.503
 629.576,   102.932
 630.058,   101.352
 630.540,   100.080
 631.022,   100.066
 631.504,   100.659
 631.986,   100.971
 632.468,   100.743
 632.950,   100.247
 633.432,   99.327
 633.915,   98.336
 634.397,   98.759
 634.879,   100.897
 635.361,   102.638
 635.843,   102.639
 636.325,   101.437
 636.807,   100.517
 637.289,   99.857
 637.771,   99.464
 638.254,   99.576
 638.736,   99.763
 639.218,   99.585
 639.700,   99.184
 640.182,   99.138
 640.664,   99.802
 641.146,   100.623
 641.628,   100.236
 642.111,   98.228
 642.593,   97.263
 643.075,   98.050
 643.557,   99.330
 644.039,   100.868
 644.521,   102.276
 645.003,   102.677
 645.485,   101.557
 645.967,   100.167
 646.450,   99.081
 646.932,   98.373
 647.414,   98.379
 647.896,   99.085
 648.378,   99.646
 648.860,   99.348
 649.342,   98.471
 649.824,   98.357
 650.307,   99.907
 650.789,   100.878
 651.271,   100.655
 651.753,   100.322
 652.235,   100.712
 652.717,   101.628
 653.199,   102.349
 653.681,   102.510
 654.163,   102.251
 654.646,   101.599
 655.128,   100.608
 655.610,   99.991
 656.092,   99.930
 656.574,   100.124
 657.056,   100.386
 657.538,   100.700
 658.020,   100.945
 658.503,   101.207
 658.985,   101.294
 659.467,   100.949
 659.949,   100.522
 660.431,   100.364
 660.913,   100.515
 661.395,   100.849
 661.877,   101.296
 662.359,   101.817
 662.842,   102.328
 663.324,   102.907
 663.806,   103.198
 664.288,   103.075
 664.770,   102.695
 665.252,   101.934
 665.734,   100.995
 666.216,   100.567
 666.698,   101.062
 667.181,   101.834
 667.663,   102.722
 668.145,   103.489
 668.627,   103.435
 669.109,   102.501
 669.591,   101.799
 670.073,   102.424
 670.555,   104.090
 671.038,   104.695
 671.520,   103.288
 672.002,   102.367
 672.484,   102.268
 672.966,   102.623
 673.448,   103.373
 673.930,   104.367
 674.412,   105.265
 674.894,   105.918
 675.377,   106.349
 675.859,   106.483
 676.341,   106.393
 676.823,   106.393
 677.305,   106.543
 677.787,   106.861
 678.269,   107.418
 678.751,   108.181
 679.234,   108.737
 679.716,   108.936
 680.198,   109.160
 680.680,   109.542
 681.162,   109.915
 681.644,   110.206
 682.126,   110.363
 682.608,   110.244
 683.091,   109.688
 683.573,   108.984
 684.055,   108.745
 684.537,   108.971
 685.019,   109.001
 685.501,   108.593
 685.983,   108.237
 686.465,   108.427
 686.947,   109.043
 687.429,   109.431
 687.912,   109.165
 688.394,   109.231
 688.876,   110.528
 689.358,   111.886
 689.840,   111.822
 690.322,   110.534
 690.804,   109.513
 691.286,   109.777
 691.769,   110.757
 692.251,   110.974
 692.733,   110.228
 693.215,   110.016
 693.697,   110.774
 694.179,   111.758
 694.661,   112.664
 695.143,   113.391
 695.625,   113.663
 696.108,   113.243
 696.590,   112.760
 697.072,   112.319
 697.554,   112.079
 698.036,   112.360
 698.518,   113.077
 699.000,   113.745
 699.482,   114.062
 699.965,   114.160
 700.447,   114.383
 700.929,   114.824
 701.411,   115.016
 701.893,   114.528
 702.375,   114.299
 702.857,   115.074
 703.339,   116.308
 703.822,   117.073
 704.304,   117.132
 704.786,   116.918
 705.268,   116.434
 705.750,   115.959
 706.232,   115.923
 706.714,   116.296
 707.196,   116.698
 707.678,   116.914
 708.160,   117.194
 708.643,   118.172
 709.125,   120.337
 709.607,   121.436
 710.089,   120.321
 710.571,   119.484
 711.053,   119.935
 711.535,   121.076
 712.018,   122.217
 712.500,   123.238
 712.982,   123.984
 713.464,   124.156
 713.946,   124.121
 714.428,   124.432
 714.910,   125.040
 715.392,   125.590
 715.874,   125.931
 716.356,   126.127
 716.839,   126.245
 717.321,   126.243
 717.803,   126.456
 718.285,   127.202
 718.767,   127.769
 719.249,   127.834
 719.731,   127.750
 720.213,   127.939
 720.696,   128.411
 721.178,   128.727
 721.660,   128.067
 722.142,   127.493
 722.624,   128.918
 723.106,   131.738
 723.588,   133.369
 724.070,   132.993
 724.553,   132.182
 725.035,   132.624
 725.517,   134.279
 725.999,   135.613
 726.481,   136.567
 726.963,   137.269
 727.445,   137.656
 727.927,   137.883
 728.409,   137.970
 728.891,   137.993
 729.374,   138.160
 729.856,   138.588
 730.338,   139.161
 730.820,   139.799
 731.302,   140.483
 731.784,   141.210
 732.266,   141.976
 732.749,   142.507
 733.231,   142.488
 733.713,   142.190
 734.195,   142.746
 734.677,   145.158
 735.159,   146.586
 735.641,   146.212
 736.123,   145.666
 736.605,   145.680
 737.087,   146.140
 737.570,   146.760
 738.052,   147.472
 738.534,   148.219
 739.016,   149.055
 739.498,   149.859
 739.980,   150.438
 740.462,   150.773
 740.944,   150.798
 741.427,   150.423
 741.909,   149.974
 742.391,   150.020
 742.873,   150.584
 743.355,   151.557
 743.837,   153.751
 744.319,   155.362
 744.801,   155.293
 745.284,   154.755
 745.766,   155.284
 746.248,   157.013
 746.730,   158.375
 747.212,   158.070
 747.694,   157.287
 748.176,   157.341
 748.658,   158.081
 749.140,   159.066
 749.623,   160.159
 750.105,   161.196
 750.587,   162.042
 751.069,   162.673
 751.551,   162.776
 752.033,   161.714
 752.515,   161.357
 752.997,   162.621
 753.480,   164.139
 753.962,   165.101
 754.444,   165.598
 754.926,   166.027
 755.408,   166.424
 755.890,   166.953
 756.372,   167.980
 756.854,   169.088
 757.336,   169.415
 757.818,   169.065
 758.301,   169.154
 758.783,   170.411
 759.265,   172.187
 759.747,   172.980
 760.229,   172.493
 760.711,   172.522
 761.193,   173.439
 761.676,   174.361
 762.158,   174.894
 762.640,   175.189
 763.122,   175.360
 763.604,   175.389
 764.086,   175.569
 764.568,   175.936
 765.050,   176.549
 765.532,   177.610
 766.014,   178.911
 766.497,   180.138
 766.979,   181.173
 767.461,   181.926
 767.943,   182.248
 768.425,   182.235
 768.907,   182.264
 769.389,   182.226
 769.871,   182.898
 770.354,   184.965
 770.836,   187.100
 771.318,   187.864
 771.800,   187.549
 772.282,   187.680
 772.764,   188.846
 773.246,   189.784
 773.728,   189.612
 774.211,   189.486
 774.693,   190.675
 775.175,   192.853
 775.657,   194.828
 776.139,   196.016
 776.621,   196.717
 777.103,   197.171
 777.585,   197.465
 778.067,   198.125
 778.550,   199.210
 779.032,   200.486
 779.514,   201.913
 779.996,   203.358
 780.478,   204.546
 780.960,   205.337
 781.442,   206.468
 781.924,   207.962
 782.407,   209.744
 782.889,   212.279
 783.371,   214.786
 783.853,   216.264
 784.335,   216.735
 784.817,   217.307
 785.299,   218.696
 785.781,   220.495
 786.263,   222.215
 786.745,   223.899
 787.228,   225.518
 787.710,   227.079
 788.192,   229.379
 788.674,   233.201
 789.156,   237.953
 789.638,   241.379
 790.120,   242.795
 790.602,   244.492
 791.085,   246.589
 791.567,   248.973
 792.049,   251.650
 792.531,   254.562
 793.013,   257.556
 793.495,   260.545
 793.977,   264.129
 794.459,   269.191
 794.942,   274.461
 795.424,   278.708
 795.906,   282.192
 796.388,   285.582
 796.870,   289.118
 797.352,   292.804
 797.834,   296.541
 798.316,   300.502
 798.798,   305.751
 799.281,   312.556
 799.763,   319.057
 800.245,   324.532
 800.727,   330.149
 801.209,   337.041
 801.691,   345.009
 802.173,   352.923
 802.655,   360.334
 803.138,   368.404
 803.620,   377.124
 804.102,   386.739
 804.584,   397.370
 805.066,   409.021
 805.548,   421.497
 806.030,   434.786
 806.512,   449.152
 806.994,   464.864
 807.477,   481.843
 807.959,   499.724
 808.441,   518.590
 808.923,   539.880
 809.405,   564.054
 809.887,   590.467
 810.369,   618.170
 810.851,   647.219
 811.333,   681.087
 811.816,   721.807
 812.298,   764.194
 812.780,   806.264
 813.262,   850.900
 813.744,   899.949
 814.226,   952.942
 814.708,   1008.961
 815.190,   1068.890
 815.673,   1129.057
 816.155,   1187.440
 816.637,   1245.332
 817.119,   1304.041
 817.601,   1363.846
 818.083,   1423.892
 818.565,   1483.908
 819.047,   1545.674
 819.529,   1611.158
 820.012,   1680.409
 820.494,   1753.909
 820.976,   1831.631
 821.458,   1913.723
 821.940,   2000.424
 822.422,   2091.153
 822.904,   2186.822
 823.386,   2286.867
 823.869,   2389.654
 824.351,   2495.410
 824.833,   2602.666
 825.315,   2715.710
 825.797,   2826.145
 826.279,   2933.716
 826.761,   3033.347
 827.243,   3118.305
 827.726,   3187.855
 828.208,   3232.018
 828.690,   3246.546
 829.172,   3228.277
 829.654,   3168.865
 830.136,   3071.056
 830.618,   2944.087
 831.100,   2791.603
 831.582,   2621.169
 832.064,   2440.982
 832.547,   2251.209
 833.029,   2064.829
 833.511,   1879.658
 833.993,   1706.098
 834.475,   1545.229
 834.957,   1398.893
 835.439,   1272.167
 835.921,   1162.508
 836.404,   1062.980
 836.886,   974.112
 837.368,   894.148
 837.850,   824.161
 838.332,   761.963
 838.814,   707.406
 839.296,   659.485
 839.778,   616.906
 840.260,   579.206
 840.743,   545.207
 841.225,   514.015
 841.707,   485.488
 842.189,   459.549
 842.671,   435.978
 843.153,   414.513
 843.635,   395.020
 844.117,   377.169
 844.600,   360.809
 845.082,   345.818
 845.564,   332.348
 846.046,   320.906
 846.528,   309.592
 847.010,   298.110
 847.492,   287.038
 847.974,   276.212
 848.457,   266.152
 848.939,   257.872
 849.421,   251.700
 849.903,   245.554
 850.385,   238.415
 850.867,   231.687
 851.349,   226.616
 851.831,   222.259
 852.313,   217.082
 852.795,   211.063
 853.278,   205.528
 853.760,   201.489
 854.242,   196.666
 854.724,   193.957
 855.206,   189.314
 855.688,   185.818
 856.170,   183.652
 856.653,   181.679
 857.135,   179.345
 857.617,   176.581
 858.099,   173.181
 858.581,   168.940
 859.063,   165.416
 859.545,   162.734
 860.027,   160.557
 860.509,   159.191
 860.991,   157.989
 861.474,   156.370
 861.956,   154.392
 862.438,   152.421
 862.920,   150.350
 863.402,   148.548
 863.884,   147.453
 864.366,   146.439
 864.848,   144.844
 865.331,   142.883
 865.813,   141.188
 866.295,   140.006
 866.777,   138.889
 867.259,   137.315
 867.741,   135.538
 868.223,   134.003
 868.705,   132.751
 869.188,   132.095
 869.670,   132.132
 870.152,   132.144
 870.634,   131.456
 871.116,   130.188
 871.598,   128.824
 872.080,   127.240
 872.562,   126.010
 873.044,   125.341
 873.527,   124.781
 874.009,   123.960
 874.491,   123.715
 874.973,   122.882
 875.455,   123.298
 875.937,   123.560
 876.419,   123.640
 876.901,   123.450
 877.384,   122.627
 877.866,   121.735
 878.348,   121.377
 878.830,   121.553
 879.312,   121.919
 879.794,   122.418
 880.276,   122.738
 880.758,   122.350
 881.240,   121.671
 881.722,   121.510
 882.205,   121.818
 882.687,   121.995
 883.169,   121.785
 883.651,   121.493
 884.133,   121.483
 884.615,   121.744
 885.097,   122.324
 885.580,   123.346
 886.062,   123.674
 886.544,   122.759
 887.026,   121.800
 887.508,   121.788
 887.990,   122.522
 888.472,   123.228
 888.954,   124.408
 889.436,   124.586
 889.918,   122.027
 890.401,   120.496
 890.883,   122.663
 891.365,   125.986
 891.847,   127.036
 892.329,   125.609
 892.811,   124.834
 893.293,   126.491
 893.775,   128.577
 894.258,   130.112
 894.740,   131.186
 895.222,   131.781
 895.704,   132.027
 896.186,   132.273
 896.668,   132.691
 897.150,   133.118
 897.632,   133.303
 898.115,   133.661
 898.597,   133.615
 899.079,   134.075
 899.561,   134.350
 900.043,   134.319
 900.525,   134.080
 901.007,   133.641
 901.489,   133.157
 901.971,   133.499
 902.454,   135.008
 902.936,   136.051
 903.418,   136.199
 903.900,   136.374
 904.382,   136.941
 904.864,   137.897
 905.346,   139.399
 905.828,   141.572
 906.311,   143.206
 906.793,   143.615
 907.275,   144.246
 907.757,   146.346
 908.239,   148.210
 908.721,   148.293
 909.203,   146.803
 909.685,   144.776
 910.167,   142.522
 910.649,   140.025
 911.132,   137.247
 911.614,   134.230
 912.096,   130.968
 912.578,   127.529
 913.060,   123.997
 913.542,   120.418
 914.024,   116.987
 914.506,   113.882
 914.989,   111.007
 915.471,   107.964
 915.953,   104.885
 916.435,   102.669
 916.917,   101.457
 917.399,   100.560
 917.881,   99.628
 918.363,   98.730
 918.846,   98.015
 919.328,   97.504
 919.810,   96.667
 920.292,   95.173
 920.774,   94.236
 921.256,   94.640
 921.738,   95.037
 922.220,   94.039
 922.702,   92.109
 923.185,   91.070
 923.667,   91.297
 924.149,   91.586
 924.631,   92.246
 925.113,   92.474
 925.595,   91.562
 926.077,   90.223
 926.559,   89.291
 927.042,   88.850
 927.524,   88.510
 928.006,   88.048
 928.488,   87.732
 928.970,   87.916
 929.452,   88.217
 929.934,   88.244
 930.416,   87.969
 930.898,   87.321
 931.381,   86.309
 931.863,   85.544
 932.345,   85.919
 932.827,   86.803
 933.309,   86.795
 933.791,   86.103
 934.273,   85.637
 934.755,   85.563
 935.237,   85.396
 935.720,   84.771
 936.202,   84.032
 936.684,   84.054
 937.166,   84.903
 937.648,   85.004
 938.130,   84.106
 938.612,   83.607
 939.094,   84.152
 939.577,   84.888
 940.059,   84.988
 940.541,   84.509
 941.023,   83.830
 941.505,   82.329
 941.987,   81.767
 942.469,   83.021
 942.951,   84.291
 943.433,   84.981
 943.916,   85.224
 944.398,   85.044
 944.880,   84.463
 945.362,   84.173
 945.844,   84.697
 946.326,   85.040
 946.808,   84.368
 947.290,   83.785
 947.773,   84.539
 948.255,   86.077
 948.737,   87.070
 949.219,   87.122
 949.701,   86.691
 950.183,   85.656
 950.665,   84.663
 951.147,   84.333
 951.630,   84.529
 952.112,   85.321
 952.594,   86.441
 953.076,   86.816
 953.558,   85.772
 954.040,   84.262
 954.522,   83.472
 955.004,   83.281
 955.486,   83.469
 955.968,   83.963
 956.451,   84.444
 956.933,   84.815
 957.415,   84.745
 957.897,   83.778
 958.379,   82.504
 958.861,   83.144
 959.343,   85.944
 959.825,   86.775
 960.308,   84.863
 960.790,   83.252
 961.272,   83.320
 961.754,   84.129
 962.236,   84.565
 962.718,   84.638
 963.200,   84.553
 963.682,   84.218
 964.164,   83.901
 964.647,   83.380
 965.129,   83.189
 965.611,   83.898
 966.093,   84.982
 966.575,   85.768
 967.057,   86.265
 967.539,   86.188
 968.021,   84.598
 968.504,   83.645
 968.986,   84.462
 969.468,   85.624
 969.950,   86.158
 970.432,   86.137
 970.914,   85.826
 971.396,   85.218
 971.878,   84.950
 972.361,   85.818
 972.843,   86.580
 973.325,   86.103
 973.807,   85.185
 974.289,   84.813
 974.771,   85.056
 975.253,   85.586
 975.735,   86.316
 976.217,   86.860
 976.699,   86.754
 977.182,   86.336
 977.664,   86.021
 978.146,   85.804
 978.628,   85.459
 979.110,   85.042
 979.592,   85.291
 980.074,   86.859
 980.557,   88.727
 981.039,   89.007
 981.521,   88.200
 982.003,   88.210
 982.485,   89.031
 982.967,   89.483
 983.449,   89.166
 983.931,   88.912
 984.413,   89.581
 984.895,   90.796
 985.378,   91.274
 985.860,   90.984
 986.342,   91.074
 986.824,   91.753
 987.306,   91.957
 987.788,   91.065
 988.270,   89.973
 988.752,   89.727
 989.235,   90.289
 989.717,   91.368
 990.199,   93.448
 990.681,   94.524
 991.163,   93.958
 991.645,   93.213
 992.127,   92.884
 992.609,   92.907
 993.091,   93.223
 993.574,   93.844
 994.056,   94.526
 994.538,   95.220
 995.020,   96.047
 995.502,   97.483
 995.984,   98.561
 996.466,   98.274
 996.948,   97.498
 997.431,   97.767
 997.913,   99.280
 998.395,   100.641
 998.877,   101.544
 999.359,   102.380
 999.841,   103.235
 1000.323,   104.106
 1000.805,   104.980
 1001.287,   105.870
 1001.770,   106.726
 1002.252,   107.519
 1002.734,   108.636
 1003.216,   110.343
 1003.698,   112.295
 1004.180,   114.347
 1004.662,   116.491
 1005.144,   118.807
 1005.627,   121.195
 1006.109,   123.296
 1006.591,   124.962
 1007.073,   126.872
 1007.555,   129.362
 1008.037,   132.430
 1008.519,   136.385
 1009.001,   140.743
 1009.483,   144.477
 1009.966,   147.786
 1010.448,   152.016
 1010.930,   157.810
 1011.412,   163.708
 1011.894,   167.833
 1012.376,   171.361
 1012.858,   176.125
 1013.340,   181.862
 1013.823,   188.049
 1014.305,   194.447
 1014.787,   200.558
 1015.269,   206.036
 1015.751,   211.519
 1016.233,   217.991
 1016.715,   225.079
 1017.197,   231.680
 1017.679,   237.877
 1018.162,   244.336
 1018.644,   251.181
 1019.126,   258.274
 1019.608,   265.501
 1020.090,   272.801
 1020.572,   280.300
 1021.054,   287.828
 1021.536,   294.494
 1022.018,   300.281
 1022.501,   305.303
 1022.983,   309.629
 1023.465,   313.218
 1023.947,   316.105
 1024.429,   318.055
 1024.911,   318.612
 1025.393,   317.771
 1025.875,   315.598
 1026.358,   312.155
 1026.840,   306.765
 1027.322,   299.103
 1027.804,   290.065
 1028.286,   280.164
 1028.768,   269.686
 1029.250,   259.240
 1029.732,   248.815
 1030.214,   239.042
 1030.697,   230.216
 1031.179,   220.959
 1031.661,   210.471
 1032.143,   200.374
 1032.625,   191.914
 1033.107,   184.740
 1033.589,   177.958
 1034.071,   171.642
 1034.553,   165.325
 1035.036,   158.466
 1035.518,   152.736
 1036.000,   149.154
 1036.482,   145.937
 1036.964,   141.542
 1037.446,   136.477
 1037.928,   132.322
 1038.410,   129.254
 1038.893,   126.455
 1039.375,   124.047
 1039.857,   121.723
 1040.339,   119.638
 1040.821,   117.373
 1041.303,   114.369
 1041.785,   110.975
 1042.267,   108.231
 1042.750,   106.212
 1043.232,   104.600
 1043.714,   104.037
 1044.196,   103.017
 1044.678,   100.842
 1045.160,   98.434
 1045.642,   96.154
 1046.124,   94.229
 1046.606,   93.265
 1047.089,   93.590
 1047.571,   93.623
 1048.053,   93.283
 1048.535,   92.527
 1049.017,   90.918
 1049.499,   89.277
 1049.981,   88.262
 1050.463,   87.682
 1050.945,   87.095
 1051.428,   86.472
 1051.910,   85.708
 1052.392,   84.500
 1052.874,   83.536
 1053.356,   83.347
 1053.838,   83.191
 1054.320,   82.396
 1054.802,   81.239
 1055.285,   80.319
 1055.767,   79.738
 1056.249,   79.280
 1056.731,   78.923
 1057.213,   78.640
 1057.695,   78.353
 1058.177,   78.205
 1058.659,   78.587
 1059.141,   79.085
 1059.624,   78.899
 1060.106,   77.893
 1060.588,   76.753
 1061.070,   75.328
 1061.552,   74.302
 1062.034,   74.093
 1062.516,   74.248
 1062.998,   74.684
 1063.480,   75.113
 1063.963,   75.021
 1064.445,   74.361
 1064.927,   73.830
 1065.409,   73.668
 1065.891,   73.700
 1066.373,   73.992
 1066.855,   74.314
 1067.337,   74.652
 1067.820,   74.817
 1068.302,   74.374
 1068.784,   73.371
 1069.266,   72.696
 1069.748,   72.750
 1070.230,   73.076
 1070.712,   73.955
 1071.194,   74.549
 1071.677,   73.913
 1072.159,   72.767
 1072.641,   72.256
 1073.123,   72.395
 1073.605,   72.252
 1074.087,   71.280
 1074.569,   70.490
 1075.051,   70.527
 1075.533,   70.730
 1076.016,   70.650
 1076.498,   70.434
 1076.980,   70.269
 1077.462,   70.192
 1077.944,   70.223
 1078.426,   70.400
 1078.908,   70.571
 1079.390,   70.763
 1079.873,   70.817
 1080.355,   70.517
 1080.837,   70.098
 1081.319,   69.791
 1081.801,   69.622
 1082.283,   69.610
 1082.765,   69.822
 1083.247,   69.786
 1083.729,   68.892
 1084.212,   68.159
 1084.694,   68.161
 1085.176,   68.634
 1085.658,   69.609
 1086.140,   70.730
 1086.622,   71.233
 1087.104,   70.919
 1087.586,   70.511
 1088.068,   70.335
 1088.551,   70.111
 1089.033,   69.485
 1089.515,   68.949
 1089.997,   69.083
 1090.479,   69.580
 1090.961,   69.805
 1091.443,   69.655
 1091.925,   69.531
 1092.408,   69.685
 1092.890,   69.753
 1093.372,   69.669
 1093.854,   69.364
 1094.336,   68.422
 1094.818,   67.428
 1095.300,   67.453
 1095.782,   68.422
 1096.265,   68.829
 1096.747,   67.884
 1097.229,   67.014
 1097.711,   66.697
 1098.193,   66.586
 1098.675,   66.400
 1099.157,   66.362
 1099.639,   66.974
 1100.121,   68.014
 1100.604,   68.477
 1101.086,   68.007
 1101.568,   67.410
 1102.050,   66.301
 1102.532,   65.849
 1103.014,   67.424
 1103.496,   69.141
 1103.978,   69.158
 1104.460,   67.939
 1104.943,   66.828
 1105.425,   65.917
 1105.907,   65.684
 1106.389,   66.935
 1106.871,   67.883
 1107.353,   67.862
 1107.835,   67.521
 1108.317,   67.181
 1108.800,   66.888
 1109.282,   66.681
 1109.764,   66.562
 1110.246,   66.539
 1110.728,   66.829
 1111.210,   66.891
 1111.692,   66.330
 1112.174,   65.899
 1112.656,   66.128
 1113.139,   66.569
 1113.621,   66.679
 1114.103,   66.476
 1114.585,   66.234
 1115.067,   65.840
 1115.549,   65.613
 1116.031,   65.537
 1116.513,   65.666
 1116.995,   66.306
 1117.478,   66.850
 1117.960,   66.663
 1118.442,   65.982
 1118.924,   65.559
 1119.406,   65.448
 1119.888,   65.409
 1120.370,   65.645
 1120.852,   65.462
 1121.335,   64.208
 1121.817,   63.448
 1122.299,   64.561
 1122.781,   66.397
 1123.263,   66.788
 1123.745,   65.695
 1124.227,   65.137
 1124.709,   65.336
 1125.192,   65.275
 1125.674,   64.770
 1126.156,   64.153
 1126.638,   63.472
 1127.120,   63.002
 1127.602,   63.084
 1128.084,   63.649
 1128.566,   64.408
 1129.048,   65.393
 1129.531,   66.403
 1130.013,   67.527
 1130.495,   67.873
 1130.977,   67.055
 1131.459,   66.118
 1131.941,   65.946
 1132.423,   65.247
 1132.905,   65.698
 1133.387,   64.710
 1133.870,   64.440
 1134.352,   64.856
 1134.834,   65.111
 1135.316,   65.041
 1135.798,   64.686
 1136.280,   64.040
 1136.762,   63.601
 1137.244,   64.097
 1137.727,   65.223
 1138.209,   66.193
 1138.691,   66.973
 1139.173,   67.457
 1139.655,   67.603
 1140.137,   67.072
 1140.619,   65.820
 1141.101,   64.825
 1141.583,   64.945
 1142.066,   65.547
 1142.548,   65.826
 1143.030,   65.794
 1143.512,   65.224
 1143.994,   64.412
 1144.476,   64.246
 1144.958,   64.744
 1145.440,   65.041
 1145.922,   64.681
 1146.405,   64.358
 1146.887,   64.955
 1147.369,   65.709
 1147.851,   65.741
 1148.333,   65.364
 1148.815,   64.894
 1149.297,   64.490
 1149.779,   64.431
 1150.262,   64.760
 1150.744,   65.054
 1151.226,   65.011
 1151.708,   64.962
 1152.190,   65.249
 1152.672,   65.490
 1153.154,   65.291
 1153.636,   64.870
 1154.119,   64.509
 1154.601,   64.264
 1155.083,   64.161
 1155.565,   64.263
 1156.047,   64.307
 1156.529,   64.068
 1157.011,   63.931
 1157.493,   64.226
 1157.975,   64.544
 1158.458,   64.459
 1158.940,   64.163
 1159.422,   64.036
 1159.904,   64.103
 1160.386,   64.465
 1160.868,   65.701
 1161.350,   66.350
 1161.832,   65.959
 1162.314,   65.333
 1162.797,   64.513
 1163.279,   63.899
 1163.761,   64.048
 1164.243,   64.759
 1164.725,   65.044
 1165.207,   64.706
 1165.689,   64.701
 1166.171,   65.292
 1166.654,   65.356
 1167.136,   64.390
 1167.618,   63.596
 1168.100,   63.849
 1168.582,   64.542
 1169.064,   64.625
 1169.546,   64.183
 1170.028,   63.978
 1170.510,   64.007
 1170.993,   64.455
 1171.475,   65.351
 1171.957,   66.024
 1172.439,   66.228
 1172.921,   65.965
 1173.403,   65.127
 1173.885,   64.254
 1174.367,   64.727
 1174.849,   64.419
 1175.332,   64.486
 1175.814,   65.114
 1176.296,   64.953
 1176.778,   65.686
 1177.260,   66.216
 1177.742,   66.017
 1178.224,   65.625
 1178.706,   65.579
 1179.189,   65.604
 1179.671,   65.346
 1180.153,   64.928
 1180.635,   64.369
 1181.117,   63.860
 1181.599,   63.901
 1182.081,   64.462
 1182.563,   64.777
 1183.046,   64.370
 1183.528,   64.048
 1184.010,   64.480
 1184.492,   64.935
 1184.974,   64.734
 1185.456,   64.449
 1185.938,   64.845
 1186.420,   65.628
 1186.902,   65.953
 1187.385,   65.657
 1187.867,   65.475
 1188.349,   65.773
 1188.831,   65.855
 1189.313,   65.195
 1189.795,   64.768
 1190.277,   65.373
 1190.759,   66.163
 1191.241,   66.322
 1191.724,   65.946
 1192.206,   65.340
 1192.688,   64.271
 1193.170,   64.010
 1193.652,   64.804
 1194.134,   65.695
 1194.616,   66.582
 1195.098,   67.260
 1195.581,   67.627
 1196.063,   67.668
 1196.545,   67.273
 1197.027,   67.466
 1197.509,   66.594
 1197.991,   67.131
 1198.473,   67.105
 1198.955,   66.467
 1199.438,   65.339
 1199.920,   63.843
 1200.402,   63.142
 1200.884,   64.078
 1201.366,   65.498
 1201.848,   65.947
 1202.330,   65.772
 1202.812,   65.503
 1203.294,   65.180
 1203.776,   64.819
 1204.259,   64.486
 1204.741,   64.337
 1205.223,   64.411
 1205.705,   64.660
 1206.187,   65.191
 1206.669,   65.536
 1207.151,   65.057
 1207.633,   64.605
 1208.116,   65.178
 1208.598,   65.903
 1209.080,   65.506
 1209.562,   64.411
 1210.044,   63.998
 1210.526,   64.560
 1211.008,   65.058
 1211.490,   65.393
 1211.973,   65.499
 1212.455,   65.041
 1212.937,   64.764
 1213.419,   65.311
 1213.901,   65.843
 1214.383,   65.434
 1214.865,   64.371
 1215.347,   63.579
 1215.829,   63.009
 1216.312,   63.106
 1216.794,   63.980
 1217.276,   65.097
 1217.758,   66.496
 1218.240,   67.225
 1218.722,   66.758
 1219.204,   65.889
 1219.686,   65.465
 1220.168,   65.379
 1220.651,   65.334
 1221.133,   65.376
 1221.615,   65.887
 1222.097,   66.670
 1222.579,   66.831
 1223.061,   66.302
 1223.543,   65.730
 1224.025,   65.422
 1224.508,   65.341
 1224.990,   65.693
 1225.472,   65.963
 1225.954,   65.551
 1226.436,   64.847
 1226.918,   64.173
 1227.400,   63.607
 1227.882,   63.094
 1228.365,   62.729
 1228.847,   62.955
 1229.329,   64.107
 1229.811,   64.945
 1230.293,   64.966
 1230.775,   64.848
 1231.257,   64.966
 1231.739,   64.848
 1232.221,   63.675
 1232.703,   62.469
 1233.186,   62.732
 1233.668,   64.193
 1234.150,   65.040
 1234.632,   65.181
 1235.114,   64.956
 1235.596,   64.171
 1236.078,   64.143
 1236.560,   65.358
 1237.043,   65.943
 1237.525,   64.697
 1238.007,   63.129
 1238.489,   63.331
 1238.971,   62.726
 1239.453,   64.269
 1239.935,   63.168
 1240.417,   63.225
 1240.900,   64.114
 1241.382,   63.998
 1241.864,   62.794
 1242.346,   62.352
 1242.828,   63.602
 1243.310,   64.920
 1243.792,   64.993
 1244.274,   64.632
 1244.756,   63.959
 1245.239,   63.665
 1245.721,   65.122
 1246.203,   66.984
 1246.685,   66.833
 1247.167,   64.937
 1247.649,   64.005
 1248.131,   64.863
 1248.613,   65.468
 1249.095,   65.404
 1249.578,   65.343
 1250.060,   65.550
 1250.542,   65.536
 1251.024,   65.024
 1251.506,   64.184
 1251.988,   63.092
 1252.470,   61.953
 1252.952,   61.527
 1253.435,   61.817
 1253.917,   63.095
 1254.399,   65.293
 1254.881,   65.994
 1255.363,   64.872
 1255.845,   63.983
 1256.327,   64.277
 1256.809,   64.949
 1257.292,   65.287
 1257.774,   65.473
 1258.256,   65.800
 1258.738,   66.095
 1259.220,   65.962
 1259.702,   65.706
 1260.184,   66.058
 1260.666,   66.779
 1261.148,   66.820
 1261.630,   65.888
 1262.113,   65.149
 1262.595,   65.253
 1263.077,   65.267
 1263.559,   64.733
 1264.041,   64.286
 1264.523,   64.297
 1265.005,   64.470
 1265.487,   64.528
 1265.970,   64.731
 1266.452,   64.796
 1266.934,   65.233
 1267.416,   65.636
 1267.898,   66.043
 1268.380,   66.081
 1268.862,   65.697
 1269.344,   65.141
 1269.827,   64.486
 1270.309,   64.109
 1270.791,   64.298
 1271.273,   64.760
 1271.755,   65.121
 1272.237,   65.441
 1272.719,   65.897
 1273.201,   66.347
 1273.683,   66.451
 1274.166,   66.353
 1274.648,   66.520
 1275.130,   66.934
 1275.612,   66.971
 1276.094,   66.302
 1276.576,   65.678
 1277.058,   65.271
 1277.540,   65.143
 1278.022,   65.796
 1278.505,   66.210
 1278.987,   65.125
 1279.469,   63.924
 1279.951,   64.502
 1280.433,   66.247
 1280.915,   66.504
 1281.397,   64.982
 1281.879,   64.379
 1282.362,   64.787
 1282.844,   65.060
 1283.326,   65.011
 1283.808,   65.142
 1284.290,   65.658
 1284.772,   66.173
 1285.254,   66.342
 1285.736,   66.166
##END=
